*** Averaged LSD spectrum of normalizing: d=0.200 lande=1.200 wl= 500.0 (I norm weight 0.200, V norm weight 120.000)
 78 6
 -100.000000  9.918030e-01  2.083943e-03  2.229050e-04  1.377971e-04 -4.740797e-05  1.358043e-04
  -97.400000  9.932808e-01  1.511749e-03  8.162627e-05  9.936481e-05  8.102489e-05  9.792782e-05
  -94.800000  9.931200e-01  1.447184e-03 -1.264005e-04  9.493486e-05 -1.120753e-04  9.356193e-05
  -92.200000  9.935617e-01  1.445099e-03  2.891485e-05  9.481024e-05  1.385869e-04  9.343912e-05
  -89.600000  9.941418e-01  1.449351e-03  1.390320e-05  9.543228e-05  2.107751e-05  9.405216e-05
  -87.000000  9.943236e-01  1.447752e-03  2.697966e-04  9.516426e-05  1.861168e-04  9.378801e-05
  -84.400000  9.956577e-01  1.457460e-03 -3.904953e-05  9.546820e-05 -1.228338e-05  9.408756e-05
  -81.800000  9.951620e-01  1.452848e-03  1.869595e-05  9.566366e-05  3.501515e-05  9.428019e-05
  -79.200000  9.960304e-01  1.457517e-03  1.275964e-06  9.548253e-05 -1.365240e-04  9.410168e-05
  -76.600000  9.955586e-01  1.449478e-03  1.562742e-04  9.500134e-05  1.178530e-04  9.362745e-05
  -74.000000  9.955390e-01  1.457216e-03 -2.285957e-05  9.532623e-05  7.011606e-05  9.394764e-05
  -71.400000  9.952837e-01  1.440644e-03 -3.689383e-05  9.514470e-05 -2.420904e-05  9.376874e-05
  -68.800000  9.952386e-01  1.455950e-03  8.095933e-05  9.504531e-05  6.773445e-05  9.367079e-05
  -66.200000  9.948878e-01  1.448783e-03 -2.308329e-05  9.528019e-05  1.634675e-04  9.390227e-05
  -63.600000  9.949108e-01  1.461569e-03  2.172576e-05  9.610625e-05  2.744236e-05  9.471638e-05
  -61.000000  9.949344e-01  1.447713e-03 -1.260052e-04  9.429436e-05 -2.103487e-05  9.293070e-05
  -58.400000  9.946102e-01  1.453404e-03 -4.681400e-05  9.580805e-05 -1.761409e-04  9.442250e-05
  -55.800000  9.948712e-01  1.449215e-03 -8.413605e-05  9.487697e-05 -7.082662e-05  9.350488e-05
  -53.200000  9.943719e-01  1.461661e-03  3.417998e-05  9.645116e-05 -1.447342e-04  9.505631e-05
  -50.600000  9.948498e-01  1.445910e-03 -8.618457e-06  9.445432e-05 -9.167970e-05  9.308834e-05
  -48.000000  9.946416e-01  1.466182e-03 -6.118926e-05  9.653675e-05  1.626300e-04  9.514065e-05
  -45.400000  9.952163e-01  1.448780e-03 -1.170289e-04  9.518348e-05  5.595339e-05  9.380696e-05
  -42.800000  9.946213e-01  1.450547e-03  8.494551e-05  9.489670e-05 -6.039843e-05  9.352432e-05
  -40.200000  9.953627e-01  1.464046e-03  1.234878e-04  9.631333e-05 -2.815871e-05  9.492047e-05
  -37.600000  9.943660e-01  1.439257e-03  3.146285e-05  9.493084e-05  1.463798e-05  9.355797e-05
  -35.000000  9.948487e-01  1.457272e-03 -2.736827e-05  9.608590e-05 -2.730296e-05  9.469632e-05
  -32.400000  9.938519e-01  1.454856e-03 -6.241283e-05  9.513800e-05 -1.842237e-04  9.376214e-05
  -29.800000  9.935628e-01  1.447548e-03 -4.394811e-05  9.509737e-05  9.196586e-05  9.372209e-05
  -27.200000  9.927427e-01  1.448915e-03  5.821841e-05  9.536188e-05 -1.667696e-04  9.398278e-05
  -24.600000  9.923337e-01  1.438892e-03 -9.921866e-05  9.389679e-05 -7.817356e-05  9.253888e-05
  -22.000000  9.912608e-01  1.442153e-03  1.651531e-04  9.504939e-05 -1.412285e-04  9.367480e-05
  -19.400000  9.905531e-01  1.449593e-03 -1.779609e-05  9.487324e-05  1.946273e-05  9.350120e-05
  -16.800000  9.901124e-01  1.441311e-03  1.443364e-04  9.468819e-05  6.849412e-05  9.331883e-05
  -14.200000  9.887664e-01  1.446891e-03  1.807255e-04  9.457849e-05  3.477124e-05  9.321071e-05
  -11.600000  9.871150e-01  1.429484e-03  4.221629e-05  9.379261e-05 -1.083659e-04  9.243621e-05
   -9.000000  9.856639e-01  1.430151e-03  1.606618e-04  9.420049e-05  1.691380e-05  9.283818e-05
   -6.400000  9.814236e-01  1.430208e-03 -1.409118e-04  9.357589e-05 -7.071365e-05  9.222262e-05
   -3.800000  9.786616e-01  1.411132e-03 -7.299489e-05  9.329380e-05 -4.536983e-06  9.194461e-05
   -1.200000  9.686086e-01  1.403145e-03 -4.122933e-04  9.223664e-05  4.809342e-05  9.090274e-05
    1.400000  9.627680e-01  1.389165e-03 -5.176085e-04  9.114255e-05  9.477789e-05  8.982446e-05
    4.000000  9.453705e-01  1.365227e-03 -1.025591e-03  8.998974e-05  3.790386e-05  8.868833e-05
    6.600000  9.314140e-01  1.358112e-03 -1.355228e-03  8.934169e-05  3.180273e-05  8.804965e-05
    9.200000  9.100613e-01  1.323158e-03 -1.560648e-03  8.703604e-05  7.580800e-05  8.577734e-05
   11.800000  8.935294e-01  1.318557e-03 -1.342041e-03  8.727285e-05 -9.314105e-05  8.601073e-05
   14.400000  8.820109e-01  1.297883e-03 -3.537958e-04  8.613036e-05 -1.824237e-04  8.488476e-05
   17.000000  8.823131e-01  1.296218e-03  9.251339e-04  8.540702e-05 -5.753227e-05  8.417189e-05
   19.600000  8.906605e-01  1.309629e-03  1.443391e-03  8.671667e-05  1.043299e-05  8.546260e-05
   22.200000  9.091269e-01  1.326204e-03  1.827801e-03  8.778432e-05  4.831832e-05  8.651480e-05
   24.800000  9.270546e-01  1.339393e-03  9.814274e-04  8.843619e-05  7.017727e-05  8.715725e-05
   27.400000  9.435864e-01  1.367280e-03  4.239026e-04  8.979605e-05  1.384042e-04  8.849744e-05
   30.000000  9.589671e-01  1.388795e-03  1.686048e-04  9.170129e-05 -2.026873e-04  9.037513e-05
   32.600000  9.654972e-01  1.392637e-03 -1.723159e-04  9.217548e-05 -1.393129e-06  9.084246e-05
   35.200000  9.750268e-01  1.409348e-03 -1.116060e-04  9.225461e-05  2.433502e-05  9.092044e-05
   37.800000  9.768459e-01  1.420713e-03 -3.215711e-05  9.355115e-05  1.689920e-04  9.219824e-05
   40.400000  9.823138e-01  1.417528e-03 -2.236578e-05  9.330456e-05 -2.596202e-05  9.195521e-05
   43.000000  9.828885e-01  1.428555e-03 -9.958168e-05  9.350474e-05 -3.187207e-05  9.215249e-05
   45.600000  9.853635e-01  1.430645e-03 -4.993661e-05  9.417753e-05  1.821477e-04  9.281556e-05
   48.200000  9.865797e-01  1.451033e-03  1.441354e-04  9.536364e-05 -1.189230e-04  9.398452e-05
   50.800000  9.874552e-01  1.426319e-03  2.008066e-04  9.356850e-05  8.271693e-05  9.221533e-05
   53.400000  9.888086e-01  1.450940e-03  7.778212e-05  9.509180e-05 -6.350492e-05  9.371660e-05
   56.000000  9.907481e-01  1.431859e-03  8.127599e-05  9.421624e-05  1.504692e-04  9.285371e-05
   58.600000  9.907273e-01  1.458298e-03 -6.018096e-05  9.574476e-05 -2.018619e-05  9.436012e-05
   61.200000  9.934837e-01  1.447320e-03  4.599855e-05  9.453247e-05 -1.654460e-04  9.316537e-05
   63.800000  9.932657e-01  1.453032e-03 -3.810706e-05  9.513641e-05  1.078323e-04  9.376057e-05
   66.400000  9.954455e-01  1.463330e-03  1.171529e-04  9.622941e-05  1.780104e-05  9.483776e-05
   69.000000  9.951515e-01  1.440217e-03 -5.137444e-05  9.452111e-05  1.825824e-04  9.315417e-05
   71.600000  9.965377e-01  1.460761e-03  9.908839e-05  9.597756e-05 -1.202362e-05  9.458956e-05
   74.200000  9.959475e-01  1.445456e-03 -1.370653e-04  9.494782e-05  7.772535e-05  9.357471e-05
   76.800000  9.966880e-01  1.474981e-03 -1.736190e-05  9.678956e-05  9.899067e-05  9.538981e-05
   79.400000  9.960069e-01  1.454963e-03 -4.842899e-05  9.520162e-05 -4.212718e-05  9.382484e-05
   82.000000  9.963484e-01  1.457547e-03  5.826959e-05  9.587950e-05 -1.206763e-04  9.449292e-05
   84.600000  9.957894e-01  1.470960e-03 -2.861708e-04  9.645584e-05  3.393730e-05  9.506091e-05
   87.200000  9.956669e-01  1.443206e-03  2.739688e-05  9.471652e-05 -1.499249e-04  9.334675e-05
   89.800000  9.959343e-01  1.462851e-03  1.988028e-04  9.609833e-05  2.346832e-05  9.470858e-05
   92.400000  9.959515e-01  1.446373e-03 -3.762401e-05  9.495056e-05  6.552117e-06  9.357741e-05
   95.000000  9.962799e-01  1.449176e-03  1.457014e-04  9.511305e-05  4.367620e-05  9.373754e-05
   97.600000  9.967098e-01  1.504948e-03  2.721570e-05  9.846562e-05 -1.944750e-04  9.704163e-05
  100.200000  9.975716e-01  2.084486e-03 -2.714017e-05  1.372024e-04  5.887785e-05  1.352182e-04
